File: IW2D-master/examples/outputs/round_chamber_sio2/ZlongWLHC_2layers1.00mm_test_coll_round_sio2.dat
Frequency [Hz]	Re(Zlong) [Ohm]	Im(Zlong) [Ohm]
1e+09 -2.10852e-45 1508.96
1.77828e+09 3.00767e-47 2703.1
3.16228e+09 -3.59457e-45 4922.97
5.62341e+09 3.81171e-44 9511.73
1e+10 -6.78006e-44 24798.2
1.77828e+10 -9.02867e-44 -17849.6
3.16228e+10 -5.43983e-43 65837.5
5.62341e+10 -3.04672e-42 -106357
1e+11 -1.12705e-42 -53555.7
1.77828e+11 -6.86792e-43 9070.76
3e+11 -2.30024e-43 -14695.7
3.16228e+11 -1.00704e-42 -26675.7
3.17e+11 -7.09896e-43 -23592.8
3.34e+11 -3.93692e-40 313730
3.51e+11 -5.77747e-43 -3152.47
3.68e+11 -2.30474e-43 -10458.9
3.85e+11 -3.38071e-43 -15232.3
4.02e+11 -2.02422e-42 -28320.6
4.19e+11 -1.79741e-42 4748.34
4.36e+11 -2.65073e-43 -7504.61
4.53e+11 -2.0545e-43 -11261.7
4.7e+11 -5.07495e-43 -15860.6
4.87e+11 -1.89232e-39 431145
5.04e+11 -4.44886e-43 -4730.9
5.21e+11 -1.85008e-43 -8781.56
5.38e+11 -2.19809e-43 -11495.4
5.55e+11 -1.95168e-42 -19765
5.62341e+11 -1.90265e-43 -9602.32
5.72e+11 -1.27379e-42 -393.017
5.89e+11 -2.19329e-43 -6911
6.06e+11 -2.04106e-43 -9102.55
6.23e+11 -5.22333e-43 -12121.4
6.4e+11 -3.92262e-41 34911.2
6.57e+11 -3.27164e-43 -5166.05
6.74e+11 -1.4262e-43 -7488.54
6.91e+11 -2.15957e-43 -9266.71
7.08e+11 -2.40567e-42 -16490.6
7.25e+11 -7.73907e-43 -2812.98
7.42e+11 -1.65126e-43 -6227.84
7.59e+11 -1.74647e-43 -7630.56
7.76e+11 -5.37805e-43 -9982.09
7.93e+11 -5.71742e-42 5416.35
8.1e+11 -2.14823e-43 -5072.62
8.27e+11 -1.37968e-43 -6492.26
8.44e+11 -2.24243e-43 -7802.01
8.61e+11 -5.39554e-42 -16750.4
8.78e+11 -4.22774e-43 -3696.52
8.95e+11 -1.17972e-43 -5591.46
9.12e+11 -1.47028e-43 -6572.12
9.29e+11 -6.23817e-43 -8702.6
9.46e+11 -1.72871e-42 -715.269
9.63e+11 -1.67544e-43 -4781.84
9.8e+11 -1.19477e-43 -5715.05
9.97e+11 -2.27392e-43 -6786.56
1e+12 -1.28552e-43 -5971.72
1.014e+12 -7.04143e-41 -35302.3
1.031e+12 -2.75426e-43 -3902.12
1.048e+12 -1.05001e-43 -5037.35
1.065e+12 -1.3818e-43 -5782.71
1.082e+12 -9.21707e-43 -8054.31
1.099e+12 -7.55659e-43 -2487.99
1.116e+12 -1.22372e-43 -4439.6
1.133e+12 -9.46511e-44 -5099.56
1.15e+12 -2.9529e-43 -6070.03
1.167e+12 -1.36916e-41 6067.89
1.184e+12 -1.77277e-43 -3831.48
1.201e+12 -1.10528e-43 -4565.96
1.218e+12 -1.32978e-43 -5180.01
1.235e+12 -2.03235e-42 -8228.97
1.252e+12 -3.71714e-43 -3025.14
1.269e+12 -9.92245e-44 -4104.23
1.286e+12 -1.00303e-43 -4605.41
1.303e+12 -3.71673e-43 -5584.88
1.32e+12 -1.91963e-42 -930.558
1.337e+12 -1.18778e-43 -3656.46
1.354e+12 -9.02689e-44 -4167.51
1.371e+12 -1.63768e-43 -4715.61
1.388e+12 -1.20432e-41 -11815
1.405e+12 -2.23366e-43 -3133.36
1.422e+12 -7.5829e-44 -3796.56
1.439e+12 -9.97562e-44 -4204.65
1.456e+12 -5.79945e-43 -5332.25
1.473e+12 -6.6426e-43 -2213.27
1.49e+12 -1.02878e-43 -3449.85
1.507e+12 -8.51842e-44 -3830.69
1.524e+12 -1.89201e-43 -4362.75
1.541e+12 -2.69277e-41 6353.93
1.558e+12 -1.35596e-43 -3077.96
1.575e+12 -6.55488e-44 -3522.02
1.592e+12 -1.11377e-43 -3878.18
1.609e+12 -1.19198e-42 -5461.11
1.626e+12 -3.01465e-43 -2556.75
1.643e+12 -8.06407e-44 -3242.36
1.66e+12 -8.16043e-44 -3545.43
1.677e+12 -2.82827e-43 -4113.22
1.694e+12 -1.90154e-42 -1062.14
1.711e+12 -9.63043e-44 -2959.87
1.728e+12 -6.44411e-44 -3279.98
1.745e+12 -1.29343e-43 -3613.81
1.762e+12 -6.29016e-42 -7143.33
1.77828e+12 -1.50905e-43 -2723.69
1.779e+12 -1.76332e-43 -2616.69
1.796e+12 -6.94756e-44 -3046.51
1.813e+12 -7.53689e-44 -3303.69
1.83e+12 -4.26545e-43 -3987.13
1.847e+12 -5.82656e-43 -1984.16
1.864e+12 -8.92309e-44 -2821.02
1.881e+12 -5.61204e-44 -3067.76
1.898e+12 -1.45724e-43 -3405.63
1.915e+12 -3.99146e-41 5882.95
1.932e+12 -1.24738e-43 -2571.8
1.949e+12 -5.70353e-44 -2866.8
1.966e+12 -8.27679e-44 -3099.61
1.983e+12 -9.45676e-43 -4090.93
2e+12 -2.7227e-43 -2211.99
3.16228e+12 -4.6807e-44 -1720.71
5.62341e+12 -1.95261e-44 -1011.25
1e+13 -1.35636e-44 -573.931
1.77828e+13 -6.37944e-44 -332.061
3.16228e+13 -2.8138e-43 -189.606
5.62341e+13 -1.81271e-45 -98.3578
1e+14 -1.61431e-45 -52.463
1.77828e+14 -1.78164e-44 -26.0391
3.16228e+14 -3.2882e-46 -10.676
5.62341e+14 -1.15158e-46 -2.9557
1e+15 -1.18301e-46 -0.343206