File: IW2D-master/examples/outputs/round_chamber_sio2/ZydipWLHC_2layers1.00mm_test_coll_round_sio2.dat
Frequency [Hz]	Re(Zydip) [Ohm/m]	Im(Zydip) [Ohm/m]
1e+09 -1.913e-26 3.4616e+07
1.77828e+09 -4.66202e-26 3.4778e+07
3.16228e+09 -6.08077e-26 3.59194e+07
5.62341e+09 2.11715e-33 3.42186e+07
1e+10 -7.53136e-27 3.65449e+07
1.77828e+10 1.65286e-27 5.08601e+07
3.16228e+10 -1.37694e-27 3.6657e+07
5.62341e+10 -2.42708e-76 6.426e+07
1e+11 -1.06686e-25 1.47244e+09
1.77828e+11 2.07176e-31 2.54424e+06
3e+11 -2.08812e-31 -4.87987e+06
3.16228e+11 1.19617e-30 -1.13618e+07
3.17e+11 -3.56226e-31 -9.16482e+06
3.34e+11 7.24067e-31 9.82353e+06
3.51e+11 -0.00000000e+00 -859915
3.68e+11 4.56348e-32 -2.66765e+06
3.85e+11 -1.33842e-31 -4.11553e+06
4.02e+11 5.01794e-31 -1.15948e+07
4.19e+11 9.09576e-33 593037
4.36e+11 -7.50114e-33 -1.55894e+06
4.53e+11 -1.27313e-32 -2.42436e+06
4.7e+11 1.90973e-38 -3.77394e+06
4.87e+11 -2.22212e-31 5.59026e+06
5.04e+11 -1.78399e-33 -831607
5.21e+11 7.09378e-33 -1.58489e+06
5.38e+11 1.0289e-32 -2.17424e+06
5.55e+11 1.40472e-31 -5.09628e+06
5.62341e+11 6.00461e-33 -1.66087e+06
5.72e+11 4.3694e-39 -119098
5.89e+11 -0.00000000e+00 -1.0738e+06
6.06e+11 2.33415e-33 -1.46258e+06
6.23e+11 -7.25818e-33 -2.12063e+06
6.4e+11 -1.94248e-32 1.84731e+06
6.57e+11 -1.33282e-33 -701506
6.74e+11 -1.42812e-33 -1.05239e+06
6.91e+11 -2.275e-33 -1.35733e+06
7.08e+11 -8.26308e-39 -3.41198e+06
7.25e+11 2.49009e-34 -341977
7.42e+11 -5.58225e-34 -777877
7.59e+11 2.8576e-39 -981524
7.76e+11 2.09245e-33 -1.3977e+06
7.93e+11 -4.57303e-34 364011
8.1e+11 7.21262e-40 -567948
8.27e+11 6.86842e-34 -748948
8.44e+11 -1.27777e-33 -936271
8.61e+11 4.12375e-32 -3.66053e+06
8.78e+11 -3.88566e-34 -371965
8.95e+11 2.69316e-34 -585249
9.12e+11 3.04299e-34 -706222
9.29e+11 -2.44277e-33 -1.03027e+06
9.46e+11 -3.58693e-39 -80334.6
9.63e+11 2.6305e-34 -456959
9.8e+11 1.89469e-34 -559826
9.97e+11 2.16617e-34 -692414
1e+12 -1.77491e-86 -583211
1.014e+12 -2.30631e-31 4.49713e+06
1.031e+12 -5.8461e-40 -340756
1.048e+12 -7.84861e-40 -454146
1.065e+12 -1.95209e-34 -534424
1.082e+12 -0.00000000e+00 -846852
1.099e+12 6.25074e-35 -197986
1.116e+12 -1.3667e-34 -370326
1.133e+12 -1.1715e-34 -434405
1.15e+12 8.3276e-86 -541244
1.167e+12 -9.07158e-40 260861
1.184e+12 -8.07764e-35 -296099
1.201e+12 1.92938e-40 -361670
1.218e+12 -2.78589e-40 -420663
1.235e+12 -2.03078e-34 -832513
1.252e+12 3.33872e-35 -215513
1.269e+12 2.29732e-40 -303763
1.286e+12 -4.00289e-35 -347319
1.303e+12 -3.59519e-40 -445603
1.32e+12 -2.12592e-35 -65250
1.337e+12 -2.1358e-35 -253333
1.354e+12 -5.64681e-35 -294455
1.371e+12 -8.69629e-35 -342275
1.388e+12 -1.24482e-38 -1.95253e+06
1.405e+12 -0.00000000e+00 -202717
1.422e+12 -2.14233e-40 -252511
1.439e+12 3.00134e-35 -284712
1.456e+12 -2.09139e-34 -390616
1.473e+12 -8.90752e-35 -132149
1.49e+12 -1.40686e-40 -216475
1.507e+12 -0.00000000e+00 -244350
1.524e+12 2.42543e-40 -287172
1.541e+12 2.30101e-34 192978
1.558e+12 7.91575e-36 -182088
1.575e+12 1.59616e-35 -212685
1.592e+12 -1.23238e-35 -238537
1.609e+12 1.47236e-34 -384409
1.626e+12 -3.60372e-36 -141596
1.643e+12 -1.53168e-35 -185832
1.66e+12 -7.55651e-36 -206206
1.677e+12 -2.90383e-35 -248998
1.694e+12 -2.13052e-40 -55424.3
1.711e+12 -8.96859e-36 -161065
1.728e+12 1.04346e-40 -181381
1.745e+12 -1.11328e-35 -203935
1.762e+12 3.45337e-34 -607813
1.77828e+12 -5.41128e-36 -141316
1.779e+12 6.89177e-36 -134731
1.796e+12 -1.71515e-40 -160638
1.813e+12 6.18548e-36 -176676
1.83e+12 -1.93481e-35 -225775
1.847e+12 -1.74762e-40 -95279.4
1.864e+12 3.756e-41 -141980
1.881e+12 -1.73092e-35 -156487
1.898e+12 -1.68103e-35 -177969
1.915e+12 -6.15637e-35 138444
1.932e+12 -7.44067e-36 -123376
1.949e+12 3.63383e-36 -139943
1.966e+12 7.67287e-41 -153539
1.983e+12 -1.12535e-34 -223739
2e+12 1.61232e-35 -100406
3.16228e+12 -8.32736e-37 -51357.3
5.62341e+12 2.79296e-38 -17151.8
1e+13 -3.10697e-40 -5492.41
1.77828e+13 -9.30079e-42 -1806.18
3.16228e+13 -1.26131e-42 -587.237
5.62341e+13 -6.28237e-44 -171.378
1e+14 -5.52945e-45 -53.347
1.77828e+14 -1.30013e-44 -16.1631
3.16228e+14 -2.22428e-46 -4.41312
5.62341e+14 -3.94958e-47 -0.965475
1e+15 -4.04308e-47 -0.114884