File: IW2D-master/examples/outputs/round_chamber_sio2/ZyquadWLHC_2layers1.00mm_test_coll_round_sio2.dat
Frequency [Hz]	Re(Zyquad) [Ohm/m]	Im(Zyquad) [Ohm/m]
1e+09 -3.97035e-52 0.000284137
1.77828e+09 1.00712e-53 0.000905137
3.16228e+09 -2.14042e-51 0.00293142
5.62341e+09 4.03618e-50 0.0100719
1e+10 -1.27669e-49 0.0466952
1.77828e+10 -3.02326e-49 -0.0597694
3.16228e+10 -3.23919e-48 0.392035
5.62341e+10 -3.22615e-47 -1.1262
1e+11 -2.12223e-47 -1.00846
1.77828e+11 -2.29973e-47 0.303735
3e+11 -1.29941e-47 -0.830165
3.16228e+11 -5.99652e-47 -1.58843
3.17e+11 -4.23746e-47 -1.40829
3.34e+11 -2.47602e-44 19.7312
3.51e+11 -3.81853e-47 -0.208358
3.68e+11 -1.59706e-47 -0.724746
3.85e+11 -2.45087e-47 -1.10428
4.02e+11 -1.53227e-46 -2.14378
4.19e+11 -1.41812e-46 0.374634
4.36e+11 -2.17622e-47 -0.616121
4.53e+11 -1.75249e-47 -0.960621
4.7e+11 -4.49139e-47 -1.40368
4.87e+11 -1.7353e-43 39.537
5.04e+11 -4.22212e-47 -0.448978
5.21e+11 -1.81501e-47 -0.861511
5.38e+11 -2.22679e-47 -1.16455
5.55e+11 -2.03963e-46 -2.06557
5.62341e+11 -2.0147e-47 -1.01678
5.72e+11 -1.37197e-46 -0.042331
5.89e+11 -2.43255e-47 -0.766492
6.06e+11 -2.32906e-47 -1.03869
6.23e+11 -6.12755e-47 -1.42198
6.4e+11 -4.72724e-45 4.20723
6.57e+11 -4.04746e-47 -0.63911
6.74e+11 -1.81005e-47 -0.950404
6.91e+11 -2.80994e-47 -1.20574
7.08e+11 -3.20715e-46 -2.19848
7.25e+11 -1.05652e-46 -0.384021
7.42e+11 -2.30713e-47 -0.870148
7.59e+11 -2.49606e-47 -1.09056
7.76e+11 -7.85847e-47 -1.45859
7.93e+11 -8.53738e-46 0.808781
8.1e+11 -3.27655e-47 -0.773694
8.27e+11 -2.14851e-47 -1.011
8.44e+11 -3.56379e-47 -1.23994
8.61e+11 -8.74762e-46 -2.71568
8.78e+11 -6.98963e-47 -0.611137
8.95e+11 -1.98817e-47 -0.942323
9.12e+11 -2.52491e-47 -1.12863
9.29e+11 -1.09125e-46 -1.52236
9.46e+11 -3.07939e-46 -0.127412
9.63e+11 -3.03813e-47 -0.867108
9.8e+11 -2.20476e-47 -1.05462
9.97e+11 -4.26896e-47 -1.27408
1e+12 -2.42064e-47 -1.12448
1.014e+12 -1.34447e-44 -6.74051
1.031e+12 -5.34707e-47 -0.757549
1.048e+12 -2.07207e-47 -0.994064
1.065e+12 -2.77105e-47 -1.15967
1.082e+12 -1.8779e-46 -1.64099
1.099e+12 -1.56378e-46 -0.514871
1.116e+12 -2.57157e-47 -0.932952
1.133e+12 -2.01933e-47 -1.08796
1.15e+12 -6.39437e-47 -1.31444
1.167e+12 -3.00869e-45 1.3334
1.184e+12 -3.95236e-47 -0.85422
1.201e+12 -2.49958e-47 -1.03259
1.218e+12 -3.04985e-47 -1.18803
1.235e+12 -4.72626e-46 -1.91366
1.252e+12 -8.76324e-47 -0.713183
1.269e+12 -2.371e-47 -0.980719
1.286e+12 -2.42889e-47 -1.11522
1.303e+12 -9.1192e-47 -1.37028
1.32e+12 -4.77137e-46 -0.231296
1.337e+12 -2.99034e-47 -0.920542
1.354e+12 -2.30149e-47 -1.06254
1.371e+12 -4.22784e-47 -1.21738
1.388e+12 -3.14761e-45 -3.08799
1.405e+12 -5.90941e-47 -0.828969
1.422e+12 -2.03042e-47 -1.01658
1.439e+12 -2.70304e-47 -1.13931
1.456e+12 -1.59001e-46 -1.46192
1.473e+12 -1.84244e-46 -0.613888
1.49e+12 -2.88643e-47 -0.967917
1.507e+12 -2.41726e-47 -1.08703
1.524e+12 -5.4295e-47 -1.25198
1.541e+12 -7.81365e-45 1.84373
1.558e+12 -3.978e-47 -0.902989
1.575e+12 -1.944e-47 -1.04454
1.592e+12 -3.33881e-47 -1.16258
1.609e+12 -3.6114e-46 -1.65458
1.626e+12 -9.23016e-47 -0.782816
1.643e+12 -2.49484e-47 -1.00312
1.66e+12 -2.55078e-47 -1.10823
1.677e+12 -8.93111e-47 -1.29887
1.694e+12 -6.06555e-46 -0.338802
1.711e+12 -3.10275e-47 -0.953616
1.728e+12 -2.09681e-47 -1.06725
1.745e+12 -4.25001e-47 -1.18744
1.762e+12 -2.08698e-45 -2.37005
1.77828e+12 -5.05306e-47 -0.912031
1.779e+12 -5.90688e-47 -0.876555
1.796e+12 -2.34958e-47 -1.03029
1.813e+12 -2.57301e-47 -1.12784
1.83e+12 -1.46983e-46 -1.37392
1.847e+12 -2.02643e-46 -0.690073
1.864e+12 -3.13193e-47 -0.990157
1.881e+12 -1.98775e-47 -1.08658
1.898e+12 -5.2081e-47 -1.21715
1.915e+12 -1.4393e-44 2.12136
1.932e+12 -4.53793e-47 -0.935612
1.949e+12 -2.09318e-47 -1.05211
1.966e+12 -3.06406e-47 -1.14747
1.983e+12 -3.53116e-46 -1.52755
2e+12 -1.02537e-46 -0.833037
3.16228e+12 -2.78716e-47 -1.02461
5.62341e+12 -2.0676e-47 -1.07081
1e+13 -2.55404e-47 -1.08071
1.77828e+13 -2.13616e-46 -1.11191
3.16228e+13 -1.6755e-45 -1.12902
5.62341e+13 -1.91946e-47 -1.0415
1e+14 -3.03975e-47 -0.987882
1.77828e+14 -5.96585e-46 -0.871922
3.16228e+14 -1.95799e-47 -0.63571
5.62341e+14 -1.2194e-47 -0.312977
1e+15 -2.22761e-47 -0.0646259